#Wave		#Intensity
958.820313	153.943558
957.326172	125.497467
955.832031	128.832809
954.337891	145.551453
952.843750	143.865524
951.349609	162.252151
949.853516	105.370544
948.359375	132.118973
946.863281	152.173279
945.369141	153.830780
943.873047	170.534973
942.378906	143.770279
940.882813	128.711777
939.386719	133.713089
937.890625	118.658310
936.394531	130.343628
934.898438	132.000992
933.402344	120.292068
931.906250	96.891670
930.410156	88.529449
928.912109	91.860237
927.416016	88.510185
925.917969	83.490952
924.421875	83.481644
922.923828	90.150032
921.425781	76.785744
919.927734	93.467575
918.429688	96.794502
916.931641	68.415710
915.433594	95.103325
913.935547	83.414063
912.435547	78.399826
910.937500	76.722473
909.437500	81.716164
907.939453	76.703712
906.439453	83.363281
904.939453	70.016426
903.439453	73.341324
901.939453	76.665306
900.439453	88.320496
898.939453	93.307770
897.439453	104.957649
895.937500	84.954636
894.437500	94.936829
892.935547	68.278870
891.433594	68.269775
889.933594	71.590408
888.431641	81.568764
886.929688	89.879898
885.425781	74.889671
883.923828	56.575523
882.421875	78.196518
880.917969	89.830292
879.416016	88.154411
877.912109	73.174477
876.408203	93.117943
874.906250	89.779495
873.402344	86.441925
871.896484	74.794716
870.392578	96.388092
868.888672	96.374023
867.382813	94.698509
865.878906	69.767563
864.373047	81.383423
862.867188	76.389374
861.361328	86.340271
859.855469	92.967834
858.349609	81.334541
856.843750	79.662537
855.337891	82.969131
853.830078	82.956390
852.324219	74.649239
850.816406	84.589355
849.308594	77.942757
847.800781	61.349598
846.292969	87.865349
844.785156	74.590881
843.275391	97.781433
841.767578	81.195381
840.257813	76.212051
838.750000	87.795448
837.240234	94.406303
835.730469	94.391022
834.220703	92.719971
832.710938	110.914726
831.199219	92.689667
829.689453	107.568535
828.177734	91.004509
826.667969	119.113449
825.156250	97.590630
823.644531	125.688988
822.132813	122.360886
820.619141	114.074089
819.107422	109.095947
817.593750	125.604378
816.082031	99.144516
814.568359	99.127625
813.054688	115.629128
811.541016	115.609299
810.027344	99.076637
808.513672	92.455574
806.998047	107.295929
805.484375	72.618477
803.968750	75.906090
802.453125	92.391273
800.937500	94.024643
799.421875	85.761795
797.906250	87.395653
796.390625	89.028893
794.873047	107.145416
793.355469	120.311157
791.839844	110.402893
790.322266	105.440636
788.804688	126.835541
787.285156	116.931244
785.767578	116.910187
784.250000	118.535408
782.730469	131.682175
781.210938	102.035172
779.691406	105.307472
778.171875	125.029823
776.652344	92.110405
775.132813	98.671646
773.611328	103.586212
772.091797	103.567154
770.570313	95.329956
769.048828	116.675453
767.527344	106.795776
766.005859	108.418663
764.482422	123.180115
762.960938	121.515068
761.437500	116.567009
759.914063	118.186684
758.390625	114.882179
756.867188	121.424065
755.343750	109.917320
753.820313	113.177094
752.294922	100.036217
750.771484	126.251328
749.246094	155.735092
747.720703	136.037460
746.195313	116.347260
744.667969	127.793762
743.142578	124.493233
741.615234	106.454124
740.089844	124.445602
738.562500	126.058861
737.035156	116.213768
735.507813	103.099426
733.978516	103.079559
732.451172	98.152069
730.921875	93.226448
729.394531	85.032227
727.865234	106.269691
726.335938	91.537659
724.804688	94.788437
723.275391	89.868103
721.744141	98.018829
720.214844	83.299751
718.683594	93.081535
717.152344	91.430641
715.621094	102.839333
714.089844	84.866623
712.556641	89.745155
711.025391	92.990341
709.492188	96.234222
707.958984	88.061440
706.425781	83.152740
704.892578	112.478561
703.357422	88.009315
701.824219	104.286705
700.289063	101.007751
698.753906	66.782211
697.218750	86.311104
695.683594	79.781219
694.148438	74.881775
692.611328	78.121964
691.076172	92.751366
689.539063	79.717743
688.001953	87.834694
686.464844	84.564682
684.927734	74.792274
683.388672	86.156487
681.851563	61.760220
680.312500	90.996849
678.773438	92.603233
677.234375	81.214630
675.695313	86.070236
674.154297	103.913010
672.615234	105.515457
671.074219	84.395401
669.533203	89.246414
667.992188	97.340134
666.451172	97.320541
664.910156	84.327477
663.369141	84.310478
661.826172	87.535538
660.283203	106.966293
658.740234	97.222450
657.197266	81.002350
655.654297	102.042336
654.109375	105.260490
652.566406	100.382011
651.021484	89.030540
649.476563	122.999123
647.931641	116.501892
646.386719	119.713799
644.841797	109.984985
643.294922	127.750778
641.748047	150.359665
640.201172	137.397629
638.654297	117.976372
637.107422	142.189224
635.560547	158.314957
634.011719	138.901230
632.464844	163.095062
630.916016	140.459290
629.367188	137.202454
627.818359	135.560745
626.267578	132.306213
624.718750	146.797775
623.167969	140.316589
621.619141	135.450531
620.068359	122.525543
618.515625	127.336174
616.964844	124.087219
615.414063	135.340332
613.861328	167.530121
612.308594	120.790398
610.755859	132.037292
609.203125	120.741234
607.650391	141.640869
606.097656	127.128990
604.542969	165.716705
602.988281	164.074402
601.433594	180.123444
599.878906	167.223434
598.324219	168.796982
596.769531	152.689987
595.212891	171.942139
593.658203	170.300522
592.101563	168.659576
590.544922	170.231201
588.986328	162.168427
587.429688	138.055908
585.873047	154.077560
584.314453	163.674088
582.755859	131.554367
581.197266	117.091644
579.638672	131.500854
578.080078	153.920898
576.519531	126.638321
574.958984	145.844864
573.400391	142.610489
571.839844	163.408020
570.277344	142.552536
568.716797	147.327728
567.156250	137.691422
565.593750	180.883377
564.031250	144.037155
562.468750	128.007034
560.906250	132.780350
559.343750	150.347229
557.779297	140.722046
556.216797	137.495926
554.652344	118.286453
553.087891	139.038315
551.523438	131.021042
549.958984	148.566925
548.392578	134.162308
546.828125	175.653152
545.261719	156.459305
543.695313	154.831436
542.128906	130.861954
540.562500	159.555466
538.994141	164.308899
537.427734	161.085861
535.859375	151.485779
534.291016	165.803574
532.722656	172.145859
531.154297	216.732498
529.585938	243.774841
528.015625	312.223724
526.445313	393.386261
524.876953	652.857666
523.306641	1362.764648
521.734375	3664.079834
520.164063	4957.128418
518.593750	2079.506348
517.021484	873.312317
515.449219	493.027954
513.876953	325.969055
512.304688	260.722809
510.732422	208.218445
509.158203	170.037384
507.585938	189.069016
506.011719	163.615128
504.437500	160.405930
502.863281	146.083023
501.287109	123.828163
499.712891	128.565018
498.136719	123.778542
496.562500	131.686676
494.986328	126.901512
493.410156	125.290161
491.832031	112.580025
490.255859	126.825363
488.677734	103.025009
487.101563	112.512527
485.523438	104.568214
483.945313	126.724045
482.367188	112.445145
480.787109	112.422714
479.208984	94.986160
477.628906	121.874611
476.048828	110.773018
474.468750	118.661736
472.888672	151.856781
471.306641	177.130981
469.726563	164.446045
468.144531	181.803223
466.562500	203.895233
464.980469	216.496872
463.398438	191.174576
461.816406	210.092316
460.234375	243.216507
458.650391	221.062042
457.066406	241.541306
455.482422	263.590851
453.898438	252.492081
452.314453	255.597580
450.728516	268.166565
449.144531	249.187805
447.558594	249.138489
445.972656	222.288467
444.386719	225.396896
442.800781	209.593430
441.212891	211.127594
439.626953	196.908463
438.039063	193.719666
436.451172	217.301102
434.863281	182.622849
433.275391	192.030960
431.687500	180.977081
430.097656	201.395645
428.507813	204.502121
426.919922	199.743469
425.330078	209.138962
423.738281	212.242096
422.148438	209.056610
420.558594	201.157730
418.966797	246.683975
417.375000	273.341187
415.783203	263.863739
414.191406	331.335114
412.599609	422.329987
411.005859	536.834473
409.414063	833.342346
407.820313	1456.101318
406.226563	1661.323730
404.632813	1176.343872
403.039063	677.441040
401.443359	438.995972
399.849609	319.777161
398.253906	252.323639
396.658203	230.337265
395.062500	227.158859
393.466797	241.211060
391.869141	219.239792
390.273438	237.985107
388.675781	248.896149
387.078125	386.574219
385.480469	732.312866
383.882813	1024.724243
382.285156	692.921997
380.685547	475.410858
379.087891	400.267578
377.488281	375.177338
375.888672	318.838287
374.289063	285.960663
372.687500	287.466980
371.087891	248.360321
369.486328	221.762634
367.886719	238.894638
366.285156	216.992493
364.683594	181.051788
363.080078	204.423615
361.478516	191.902145
359.875000	182.505310
358.273438	185.588699
356.669922	162.163391
355.066406	163.690582
353.460938	173.010422
351.857422	172.976532
350.253906	155.804169
348.648438	177.581940
347.042969	151.070801
345.437500	161.941055
343.832031	140.113831
342.224609	174.329666
340.619141	161.845795
339.011719	157.146332
337.404297	150.893097
335.796875	135.310532
334.189453	155.498810
332.582031	129.038666
330.972656	153.883362
329.365234	133.650177
327.755859	138.285217
326.146484	119.616486
324.537109	119.592957
322.927734	136.650772
321.316406	130.413696
319.705078	128.835785
318.095703	121.050735
316.484375	147.404526
314.873047	136.516220
313.259766	141.142334
311.648438	131.810242
310.035156	130.233810
308.423828	127.107895
306.810547	131.732147
305.197266	148.750412
303.582031	147.171799
301.968750	144.044937
300.353516	151.759216
298.740234	128.505295
297.125000	116.096214
295.509766	131.549606
293.892578	120.692139
292.277344	109.838966
290.662109	109.817131
289.044922	125.259399
287.427734	112.865631
285.810547	109.751549
284.193359	122.093575
282.574219	103.527054
280.957031	111.230736
279.337891	111.208504
277.718750	97.287979
276.099609	92.636665
274.480469	106.510826
272.859375	100.316162
271.240234	108.011108
269.619141	104.903999
267.998047	115.679680
266.376953	101.777626
264.755859	103.298897
263.134766	106.360992
261.511719	101.716064
259.888672	92.450470
258.267578	112.458649
256.644531	93.953270
255.019531	101.633751
253.396484	101.613129
251.771484	112.367439
250.148438	104.649750
248.523438	100.012482
246.898438	101.530434
245.271484	93.819580
243.646484	112.252953
242.019531	116.842171
240.394531	122.966568
238.767578	118.331039
237.140625	119.843185
235.511719	139.788300
233.884766	142.831146
232.255859	159.692215
230.628906	168.870346
229.000000	211.811722
227.371094	199.491455
225.740234	217.860870
224.111328	193.273010
222.480469	182.497665
220.849609	171.726730
219.218750	165.559082
217.587891	165.524490
215.957031	173.151413
214.324219	162.391174
212.693359	139.382034
211.060547	162.322952
209.427734	140.854401
207.794922	137.763275
206.160156	146.916428
204.527344	143.825226
202.892578	139.205521
201.257813	140.705368
199.623047	123.855530
197.986328	140.645432
196.351563	139.086960
194.714844	128.360489
193.080078	151.249573
191.443359	120.668182
189.804688	146.603210
188.167969	149.625168
186.529297	135.854736
184.892578	155.664978
183.253906	151.053833
181.615234	141.868225
179.974609	134.211670
178.335938	147.905579
176.695313	131.104111
175.056641	147.840851
173.416016	129.522812
171.773438	112.736221
170.132813	117.280746
168.490234	126.391563
166.849609	129.408478
165.207031	111.114380
163.564453	133.916306
161.919922	111.064888
160.277344	138.419815
158.632813	117.098221
156.988281	110.990273
155.343750	126.166023
153.699219	118.538918
152.052734	120.031502
150.408203	124.561417
148.761719	135.163986
147.115234	121.468056
145.468750	124.476326
143.820313	103.200645
142.173828	97.107727
140.525391	109.221062
138.876953	112.229095
137.228516	116.751915
135.578125	121.272575
133.929688	103.057724
132.279297	101.518509
130.628906	96.950241
128.978516	99.956512
127.328125	89.334076
125.675781	101.423271
124.023438	95.345627
122.371094	107.427559
120.718750	90.762283
119.066406	93.765358
117.412109	84.671066
115.757813	90.697266
114.103516	80.096672
112.449219	89.142746
110.794922	72.505386
109.138672	57.386192
107.484375	73.980003
105.826172	67.924255
104.169922	73.943886
102.513672	63.364937
100.855469	52.791130
99.197266	54.286053
97.539063	51.257477
95.880859	72.345535
94.222656	64.793411
92.562500	64.777229
90.902344	45.182095
89.242188	58.721966
87.582031	54.191227
85.919922	54.177525
84.257813	69.209274
82.595703	63.174995
80.933594	52.632389
79.271484	55.625702
77.607422	58.617428
75.943359	46.581329
74.279297	37.555870
72.615234	42.051659
70.949219	37.536346
69.285156	30.021231
67.619141	31.514029
65.953125	24.004374
64.285156	11.999019
62.619141	17.993761
60.951172	23.985306
59.283203	8.992091
57.613281	4.494843
55.945313	-11.983028
